## w(eV)         sigma(Sm^-1)     kappa(W(mK)^-1)        L12/e(Am^-1)      L22/e^2(Wm^-1)
    0.01              304231             6908.63        -1.13096e+07          1.0749e+09
    0.03              304230             6908.86        -1.13099e+07         1.07494e+09
    0.05              304227             6909.32        -1.13103e+07         1.07502e+09
    0.07              304222                6910         -1.1311e+07         1.07515e+09
    0.09              304216             6910.92        -1.13119e+07         1.07531e+09
    0.11              304208             6912.07         -1.1313e+07         1.07551e+09
    0.13              304198             6913.45        -1.13144e+07         1.07576e+09
    0.15              304187             6915.06        -1.13159e+07         1.07604e+09
    0.17              304175              6916.9        -1.13177e+07         1.07637e+09
    0.19              304161             6918.96        -1.13198e+07         1.07673e+09
    0.21              304145             6921.26         -1.1322e+07         1.07714e+09
    0.23              304128             6923.78        -1.13245e+07         1.07759e+09
    0.25              304109             6926.53        -1.13272e+07         1.07807e+09
    0.27              304089             6929.51        -1.13301e+07          1.0786e+09
    0.29              304067             6932.72        -1.13333e+07         1.07917e+09
    0.31              304044             6936.15        -1.13367e+07         1.07978e+09
    0.33              304019             6939.82        -1.13403e+07         1.08043e+09
    0.35              303992             6943.71        -1.13441e+07         1.08112e+09
    0.37              303964             6947.82        -1.13481e+07         1.08185e+09
    0.39              303934             6952.16        -1.13524e+07         1.08263e+09
    0.41              303903             6956.73        -1.13569e+07         1.08344e+09
    0.43              303870             6961.52        -1.13616e+07         1.08429e+09
    0.45              303836             6966.54        -1.13666e+07         1.08518e+09
    0.47              303800             6971.78        -1.13717e+07         1.08612e+09
    0.49              303763             6977.25        -1.13771e+07         1.08709e+09
    0.51              303724             6982.93        -1.13827e+07         1.08811e+09
    0.53              303683             6988.85        -1.13886e+07         1.08916e+09
    0.55              303641             6994.98        -1.13946e+07         1.09025e+09
    0.57              303598             7001.33        -1.14009e+07         1.09139e+09
    0.59              303553             7007.91        -1.14074e+07         1.09256e+09
    0.61              303506              7014.7        -1.14141e+07         1.09378e+09
    0.63              303458             7021.72        -1.14211e+07         1.09504e+09
    0.65              303408             7028.95        -1.14283e+07         1.09633e+09
    0.67              303357              7036.4        -1.14357e+07         1.09767e+09
    0.69              303304             7044.07        -1.14433e+07         1.09904e+09
    0.71              303250             7051.96        -1.14511e+07         1.10046e+09
    0.73              303194             7060.06        -1.14592e+07         1.10191e+09
    0.75              303137             7068.38        -1.14674e+07         1.10341e+09
    0.77              303078             7076.91        -1.14759e+07         1.10494e+09
    0.79              303018             7085.65        -1.14846e+07         1.10652e+09
    0.81              302956             7094.61        -1.14936e+07         1.10813e+09
    0.83              302893             7103.78        -1.15027e+07         1.10979e+09
    0.85              302828             7113.16        -1.15121e+07         1.11148e+09
    0.87              302762             7122.75        -1.15217e+07         1.11322e+09
    0.89              302694             7132.55        -1.15315e+07         1.11499e+09
    0.91              302624             7142.55        -1.15415e+07          1.1168e+09
    0.93              302554             7152.76        -1.15518e+07         1.11865e+09
    0.95              302481             7163.18        -1.15622e+07         1.12055e+09
    0.97              302408             7173.81        -1.15729e+07         1.12248e+09
    0.99              302332             7184.63        -1.15838e+07         1.12445e+09
    1.01              302256             7195.66        -1.15949e+07         1.12646e+09
    1.03              302177             7206.89        -1.16062e+07         1.12851e+09
    1.05              302098             7218.32        -1.16177e+07         1.13059e+09
    1.07              302017             7229.96        -1.16295e+07         1.13272e+09
    1.09              301934             7241.78        -1.16415e+07         1.13488e+09
    1.11              301850             7253.81        -1.16536e+07         1.13709e+09
    1.13              301765             7266.03         -1.1666e+07         1.13933e+09
    1.15              301678             7278.45        -1.16786e+07         1.14161e+09
    1.17              301589             7291.06        -1.16915e+07         1.14393e+09
    1.19              301499             7303.86        -1.17045e+07         1.14629e+09
    1.21              301408             7316.85        -1.17177e+07         1.14869e+09
    1.23              301315             7330.03        -1.17312e+07         1.15112e+09
    1.25              301221              7343.4        -1.17448e+07          1.1536e+09
    1.27              301126             7356.95        -1.17587e+07         1.15611e+09
    1.29              301029              7370.7        -1.17728e+07         1.15866e+09
    1.31              300930             7384.62        -1.17871e+07         1.16125e+09
    1.33              300831             7398.73        -1.18016e+07         1.16388e+09
    1.35              300729             7413.01        -1.18163e+07         1.16654e+09
    1.37              300627             7427.48        -1.18312e+07         1.16924e+09
    1.39              300523             7442.12        -1.18463e+07         1.17198e+09
    1.41              300417             7456.95        -1.18616e+07         1.17476e+09
    1.43              300310             7471.94        -1.18772e+07         1.17757e+09
    1.45              300202             7487.11        -1.18929e+07         1.18042e+09
    1.47              300093             7502.45        -1.19088e+07         1.18331e+09
    1.49              299982             7517.96         -1.1925e+07         1.18624e+09
    1.51              299869             7533.64        -1.19413e+07          1.1892e+09
    1.53              299756             7549.49        -1.19579e+07          1.1922e+09
    1.55              299641              7565.5        -1.19746e+07         1.19524e+09
    1.57              299524             7581.67        -1.19915e+07         1.19832e+09
    1.59              299407             7598.01        -1.20087e+07         1.20143e+09
    1.61              299287             7614.51         -1.2026e+07         1.20458e+09
    1.63              299167             7631.16        -1.20436e+07         1.20776e+09
    1.65              299045             7647.97        -1.20613e+07         1.21098e+09
    1.67              298922             7664.94        -1.20793e+07         1.21424e+09
    1.69              298798             7682.06        -1.20974e+07         1.21753e+09
    1.71              298672             7699.33        -1.21157e+07         1.22086e+09
    1.73              298545             7716.75        -1.21343e+07         1.22422e+09
    1.75              298416             7734.32         -1.2153e+07         1.22762e+09
    1.77              298287             7752.03        -1.21719e+07         1.23106e+09
    1.79              298156             7769.88         -1.2191e+07         1.23453e+09
    1.81              298023             7787.88        -1.22103e+07         1.23803e+09
    1.83              297890             7806.02        -1.22298e+07         1.24157e+09
    1.85              297755             7824.29        -1.22495e+07         1.24515e+09
    1.87              297619             7842.71        -1.22693e+07         1.24876e+09
    1.89              297481             7861.25        -1.22894e+07         1.25241e+09
    1.91              297343             7879.93        -1.23096e+07         1.25609e+09
    1.93              297203             7898.73        -1.23301e+07          1.2598e+09
    1.95              297061             7917.67        -1.23507e+07         1.26355e+09
    1.97              296919             7936.73        -1.23715e+07         1.26734e+09
    1.99              296775             7955.91        -1.23924e+07         1.27116e+09
    2.01              296630             7975.22        -1.24136e+07         1.27501e+09
    2.03              296484             7994.64         -1.2435e+07         1.27889e+09
    2.05              296337             8014.18        -1.24565e+07         1.28281e+09
    2.07              296188             8033.84        -1.24782e+07         1.28676e+09
    2.09              296038             8053.61        -1.25001e+07         1.29075e+09
    2.11              295887             8073.49        -1.25221e+07         1.29477e+09
    2.13              295735             8093.48        -1.25444e+07         1.29882e+09
    2.15              295581             8113.57        -1.25668e+07          1.3029e+09
    2.17              295426             8133.77        -1.25894e+07         1.30702e+09
    2.19              295270             8154.07        -1.26121e+07         1.31117e+09
    2.21              295113             8174.47        -1.26351e+07         1.31535e+09
    2.23              294955             8194.96        -1.26582e+07         1.31956e+09
    2.25              294796             8215.56        -1.26815e+07         1.32381e+09
    2.27              294635             8236.24        -1.27049e+07         1.32809e+09
    2.29              294473             8257.01        -1.27285e+07         1.33239e+09
    2.31              294310             8277.88        -1.27523e+07         1.33673e+09
    2.33              294146             8298.82        -1.27762e+07         1.34111e+09
    2.35              293981             8319.85        -1.28004e+07         1.34551e+09
    2.37              293814             8340.96        -1.28246e+07         1.34994e+09
    2.39              293647             8362.15        -1.28491e+07          1.3544e+09
    2.41              293478             8383.42        -1.28737e+07          1.3589e+09
    2.43              293308             8404.76        -1.28984e+07         1.36342e+09
    2.45              293137             8426.17        -1.29233e+07         1.36797e+09
    2.47              292965             8447.64        -1.29484e+07         1.37256e+09
    2.49              292792             8469.19        -1.29736e+07         1.37717e+09
    2.51              292618              8490.8         -1.2999e+07         1.38181e+09
    2.53              292442             8512.46        -1.30246e+07         1.38648e+09
    2.55              292266             8534.19        -1.30502e+07         1.39119e+09
    2.57              292088             8555.97        -1.30761e+07         1.39591e+09
    2.59              291909             8577.81        -1.31021e+07         1.40067e+09
    2.61              291730              8599.7        -1.31282e+07         1.40546e+09
    2.63              291549             8621.63        -1.31545e+07         1.41027e+09
    2.65              291367             8643.61        -1.31809e+07         1.41511e+09
    2.67              291184             8665.64        -1.32075e+07         1.41998e+09
    2.69              291000              8687.7        -1.32342e+07         1.42488e+09
    2.71              290815             8709.81        -1.32611e+07          1.4298e+09
    2.73              290629             8731.94         -1.3288e+07         1.43475e+09
    2.75              290441             8754.12        -1.33152e+07         1.43973e+09
    2.77              290253             8776.32        -1.33424e+07         1.44473e+09
    2.79              290064             8798.55        -1.33699e+07         1.44976e+09
    2.81              289874              8820.8        -1.33974e+07         1.45482e+09
    2.83              289682             8843.08        -1.34251e+07          1.4599e+09
    2.85              289490             8865.37        -1.34529e+07         1.46501e+09
    2.87              289297             8887.68        -1.34808e+07         1.47014e+09
    2.89              289102             8910.01        -1.35088e+07         1.47529e+09
    2.91              288907             8932.35         -1.3537e+07         1.48048e+09
    2.93              288710              8954.7        -1.35653e+07         1.48568e+09
    2.95              288513             8977.05        -1.35938e+07         1.49091e+09
    2.97              288315             8999.41        -1.36223e+07         1.49616e+09
    2.99              288115             9021.77         -1.3651e+07         1.50144e+09
    3.01              287915             9044.12        -1.36798e+07         1.50674e+09
    3.03              287714             9066.48        -1.37087e+07         1.51206e+09
    3.05              287511             9088.82        -1.37377e+07         1.51741e+09
    3.07              287308             9111.15        -1.37668e+07         1.52278e+09
    3.09              287104             9133.48         -1.3796e+07         1.52817e+09
    3.11              286899             9155.78        -1.38254e+07         1.53358e+09
    3.13              286693             9178.07        -1.38548e+07         1.53902e+09
    3.15              286485             9200.34        -1.38844e+07         1.54447e+09
    3.17              286277             9222.58        -1.39141e+07         1.54995e+09
    3.19              286068              9244.8        -1.39438e+07         1.55545e+09
    3.21              285858             9266.99        -1.39737e+07         1.56097e+09
    3.23              285648             9289.15        -1.40037e+07          1.5665e+09
    3.25              285436             9311.27        -1.40337e+07         1.57206e+09
    3.27              285223             9333.36        -1.40639e+07         1.57764e+09
    3.29              285009              9355.4        -1.40941e+07         1.58324e+09
    3.31              284795             9377.41        -1.41245e+07         1.58885e+09
    3.33              284579             9399.37        -1.41549e+07         1.59449e+09
    3.35              284363             9421.28        -1.41854e+07         1.60014e+09
    3.37              284146             9443.14         -1.4216e+07         1.60581e+09
    3.39              283928             9464.94        -1.42467e+07          1.6115e+09
    3.41              283708              9486.7        -1.42775e+07         1.61721e+09
    3.43              283488             9508.39        -1.43083e+07         1.62293e+09
    3.45              283268             9530.02        -1.43392e+07         1.62867e+09
    3.47              283046             9551.58        -1.43702e+07         1.63442e+09
    3.49              282823             9573.08        -1.44013e+07          1.6402e+09
    3.51              282600             9594.51        -1.44325e+07         1.64598e+09
    3.53              282375             9615.87        -1.44637e+07         1.65179e+09
    3.55              282150             9637.16         -1.4495e+07         1.65761e+09
    3.57              281924             9658.36        -1.45263e+07         1.66344e+09
    3.59              281697             9679.49        -1.45577e+07         1.66929e+09
    3.61              281469             9700.53        -1.45892e+07         1.67515e+09
    3.63              281240             9721.49        -1.46207e+07         1.68102e+09
    3.65              281010             9742.36        -1.46523e+07         1.68691e+09
    3.67              280780             9763.14        -1.46839e+07         1.69281e+09
    3.69              280548             9783.83        -1.47156e+07         1.69873e+09
    3.71              280316             9804.42        -1.47474e+07         1.70466e+09
    3.73              280083             9824.91        -1.47792e+07         1.71059e+09
    3.75              279849              9845.3         -1.4811e+07         1.71654e+09
    3.77              279614             9865.59        -1.48429e+07         1.72251e+09
    3.79              279379             9885.77        -1.48748e+07         1.72848e+09
    3.81              279142             9905.85        -1.49068e+07         1.73446e+09
    3.83              278905             9925.81        -1.49388e+07         1.74045e+09
    3.85              278667             9945.66        -1.49708e+07         1.74646e+09
    3.87              278428             9965.39        -1.50029e+07         1.75247e+09
    3.89              278188             9985.01         -1.5035e+07         1.75849e+09
    3.91              277947             10004.5        -1.50672e+07         1.76452e+09
    3.93              277706             10023.9        -1.50993e+07         1.77056e+09
    3.95              277464             10043.1        -1.51315e+07         1.77661e+09
    3.97              277221             10062.2        -1.51637e+07         1.78266e+09
    3.99              276977             10081.2        -1.51959e+07         1.78872e+09
    4.01              276732             10100.1        -1.52282e+07         1.79479e+09
    4.03              276486             10118.8        -1.52604e+07         1.80086e+09
    4.05              276240             10137.4        -1.52927e+07         1.80694e+09
    4.07              275993             10155.8         -1.5325e+07         1.81303e+09
    4.09              275744             10174.1        -1.53572e+07         1.81912e+09
    4.11              275496             10192.3        -1.53895e+07         1.82522e+09
    4.13              275246             10210.3        -1.54218e+07         1.83132e+09
    4.15              274995             10228.1        -1.54541e+07         1.83742e+09
    4.17              274744             10245.8        -1.54864e+07         1.84353e+09
    4.19              274492             10263.4        -1.55187e+07         1.84964e+09
    4.21              274239             10280.8         -1.5551e+07         1.85576e+09
    4.23              273985               10298        -1.55832e+07         1.86187e+09
    4.25              273731             10315.1        -1.56155e+07         1.86799e+09
    4.27              273475               10332        -1.56478e+07         1.87411e+09
    4.29              273219             10348.8          -1.568e+07         1.88024e+09
    4.31              272962             10365.4        -1.57122e+07         1.88636e+09
    4.33              272704             10381.8        -1.57444e+07         1.89248e+09
    4.35              272446               10398        -1.57765e+07          1.8986e+09
    4.37              272186             10414.1        -1.58087e+07         1.90473e+09
    4.39              271926               10430        -1.58408e+07         1.91085e+09
    4.41              271665             10445.7        -1.58729e+07         1.91697e+09
    4.43              271403             10461.3        -1.59049e+07         1.92309e+09
    4.45              271141             10476.6        -1.59369e+07         1.92921e+09
